#Rx    	          	          	          	          	Specular	        	Diffuse 	        	DiffusePSum	Total   	        	TotalPSum
#      	X(m)      	Y(m)      	Z(m)      	Distance(m)	Pow(dBm)	Phase(deg)	Pow(dBm)	Phase(deg)	Pow(dBm)	Pow(dBm)	Phase(deg)	Pow(dBm)
1      	673.303   	701.589   	80.794    	163.698   	-145.506	50.610  	-132.373	-79.775 	-136.565	-133.548	-68.690 	-136.043
2      	796.010   	514.643   	81.481    	77.948    	-119.017	-169.965	-120.081	-17.649 	-120.106	-125.676	-107.746	-116.517
3      	760.767   	546.429   	82.057    	44.330    	-95.730 	64.508  	-115.171	114.463 	-112.057	-95.128 	68.876  	-95.630 
4      	727.124   	576.772   	82.712    	47.463    	-101.866	-60.927 	-121.649	-161.882	-120.639	-101.992	-66.789 	-101.809
5      	807.709   	451.404   	80.671    	130.600   	-113.709	-179.446	-123.033	-162.462	-125.691	-111.227	-175.143	-113.442
6      	804.222   	467.006   	80.772    	116.192   	-106.910	-41.112 	-127.204	-113.755	-123.621	-106.629	-46.238 	-106.819
7      	785.609   	550.265   	82.199    	56.901    	-122.220	-143.563	-121.037	-107.421	-119.332	-116.025	-124.221	-117.530
8      	758.937   	669.581   	82.477    	117.353   	-106.271	-143.020	-124.038	64.153  	-123.416	-107.314	-146.839	-106.188
9      	756.922   	623.858   	83.158    	76.474    	-104.447	-120.261	-113.331	-108.868	-118.599	-101.813	-117.255	-104.284
10     	715.665   	559.861   	82.032    	49.811    	-114.836	-154.412	-124.821	178.063 	-116.681	-112.630	-160.932	-112.651
