#Rx    	          	          	          	          	Specular	        	Diffuse 	        	DiffusePSum	Total   	        	TotalPSum
#      	X(m)      	Y(m)      	Z(m)      	Distance(m)	Pow(dBm)	Phase(deg)	Pow(dBm)	Phase(deg)	Pow(dBm)	Pow(dBm)	Phase(deg)	Pow(dBm)
1      	699.142   	397.067   	87.899    	175.504   	-182.126	2.323   	-166.236	124.704 	-147.963	-166.922	116.268 	-147.961
2      	751.028   	555.213   	87.594    	45.602    	-96.250 	139.941 	-112.647	95.782  	-113.167	-95.315 	134.506 	-96.162 
3      	761.956   	540.783   	87.279    	51.254    	-101.502	-64.735 	-116.473	-103.762	-114.437	-100.333	-70.370 	-101.287
4      	759.073   	611.797   	88.657    	70.585    	-105.327	-125.571	-119.409	136.976 	-118.074	-105.381	-136.943	-105.102
5      	750.466   	707.473   	86.992    	154.096   	-109.231	157.843 	-131.516	86.480  	-129.105	-108.999	153.777 	-109.187
6      	811.564   	434.163   	85.792    	148.343   	-121.536	65.554  	-126.915	-81.807 	-128.386	-125.703	37.580  	-120.721
7      	781.029   	570.756   	87.871    	58.302    	-101.861	-62.198 	-115.865	124.647 	-115.465	-103.774	-63.896 	-101.676
8      	720.089   	566.723   	87.538    	52.372    	-113.979	-127.695	-115.664	-17.681 	-116.610	-113.508	-80.554 	-112.088
9      	717.329   	562.442   	87.488    	53.383    	-111.733	-16.359 	-116.981	-100.998	-117.623	-110.269	-43.729 	-110.738
10     	715.665   	559.860   	87.420    	54.184    	-118.228	-157.539	-117.970	149.813 	-117.729	-113.028	175.715 	-114.961
