#Rx    	          	          	          	          	Specular	        	Diffuse 	        	DiffusePSum	Total   	        	TotalPSum
#      	X(m)      	Y(m)      	Z(m)      	Distance(m)	Pow(dBm)	Phase(deg)	Pow(dBm)	Phase(deg)	Pow(dBm)	Pow(dBm)	Phase(deg)	Pow(dBm)
1      	673.418   	700.234   	85.769    	163.719   	-142.920	-24.293 	-141.973	-141.591	-133.297	-142.054	-88.045 	-132.847
2      	795.096   	515.468   	86.441    	79.512    	-114.532	10.424  	-122.730	150.400 	-118.625	-117.086	30.045  	-113.103
3      	759.815   	547.288   	86.968    	48.247    	-116.685	-58.238 	-120.584	-0.339  	-116.237	-113.492	-36.249 	-113.445
4      	726.016   	577.771   	87.625    	52.434    	-112.411	-160.463	-125.733	-8.564  	-119.709	-114.176	-153.310	-111.669
5      	807.416   	452.714   	85.587    	130.907   	-107.809	-32.161 	-124.868	152.278 	-122.549	-109.117	-32.884 	-107.666
6      	803.929   	468.315   	85.689    	116.727   	-110.630	-47.489 	-120.621	-4.900  	-121.197	-108.681	-37.633 	-110.264
7      	785.329   	551.518   	87.112    	60.057    	-111.990	71.935  	-112.305	-74.015 	-115.917	-116.779	2.344   	-110.514
8      	758.668   	670.784   	87.346    	120.178   	-106.100	18.801  	-119.592	-114.214	-121.637	-107.314	8.555   	-105.980
9      	756.151   	622.662   	88.078    	78.133    	-106.369	-163.639	-116.074	-52.240 	-118.329	-106.982	-144.561	-106.100
10     	715.617   	559.786   	86.929    	53.805    	-113.903	106.281 	-115.110	85.093  	-118.104	-108.613	96.430  	-112.504
