#Rx    	          	          	          	          	Specular	        	Diffuse 	        	DiffusePSum	Total   	        	TotalPSum
#      	X(m)      	Y(m)      	Z(m)      	Distance(m)	Pow(dBm)	Phase(deg)	Pow(dBm)	Phase(deg)	Pow(dBm)	Pow(dBm)	Phase(deg)	Pow(dBm)
1      	699.086   	397.728   	99.823    	178.372   	-181.021	-29.888 	-149.397	-78.031 	-148.046	-149.244	-76.931 	-148.044
2      	732.912   	571.551   	99.796    	59.874    	-99.855 	35.880  	-130.692	19.186  	-118.256	-99.619 	35.420  	-99.792 
3      	707.772   	594.225   	101.142   	77.903    	-150.928	-139.060	-126.530	-77.690 	-125.300	-126.271	-80.633 	-125.289
4      	817.544   	539.454   	97.418    	92.488    	-139.398	-117.524	-128.907	-145.962	-125.266	-126.825	-139.532	-125.101
5      	748.743   	737.184   	96.632    	185.282   	-125.272	-67.478 	-131.733	45.963  	-131.971	-125.989	-39.213 	-124.430
6      	750.538   	715.397   	98.296    	165.165   	-120.135	-112.074	-125.699	-179.926	-130.255	-117.895	-134.230	-119.732
7      	814.555   	420.782   	96.998    	164.465   	-119.331	-138.328	-128.979	91.927  	-127.807	-120.959	-156.110	-118.754
8      	751.200   	704.189   	98.992    	154.939   	-119.522	-69.408 	-125.379	170.938 	-129.275	-120.740	-100.033	-119.085
9      	737.820   	764.044   	94.629    	210.751   	-112.488	34.585  	-134.015	-74.947 	-135.947	-112.706	29.935  	-112.468
10     	785.693   	668.487   	98.754    	128.478   	-142.160	-32.924 	-120.066	10.582  	-127.890	-119.573	7.652   	-127.730
