#Rx    	          	          	          	          	Specular	        	Diffuse 	        	DiffusePSum	Total   	        	TotalPSum
#      	X(m)      	Y(m)      	Z(m)      	Distance(m)	Pow(dBm)	Phase(deg)	Pow(dBm)	Phase(deg)	Pow(dBm)	Pow(dBm)	Phase(deg)	Pow(dBm)
1      	682.670   	591.196   	88.360    	84.172    	-139.055	-79.481 	-126.155	55.804  	-128.009	-127.525	45.051  	-127.681
2      	684.012   	575.380   	88.561    	78.731    	-140.361	-155.531	-132.311	141.889 	-125.041	-130.489	158.440 	-124.915
3      	689.091   	515.525   	86.830    	84.734    	-116.847	-160.702	-117.926	-175.611	-123.539	-111.422	-167.692	-116.004
4      	659.823   	543.225   	89.240    	99.450    	-122.045	-30.629 	-137.508	-74.834 	-125.892	-121.007	-36.616 	-120.546
5      	754.281   	669.967   	86.437    	118.700   	-111.316	-152.470	-125.506	34.656  	-123.945	-113.182	-154.191	-111.085
6      	755.545   	654.622   	86.865    	104.932   	-105.737	111.805 	-120.939	138.110 	-123.078	-104.461	115.617 	-105.658
7      	760.622   	592.994   	86.784    	57.109    	-101.575	-122.332	-118.792	-28.264 	-116.034	-101.578	-114.431	-101.422
8      	772.747   	445.806   	85.732    	124.991   	-111.123	166.164 	-127.328	128.195 	-126.831	-110.092	161.312 	-111.008
9      	799.559   	487.863   	84.974    	99.370    	-109.921	-42.228 	-126.773	-69.818 	-120.273	-108.865	-45.606 	-109.538
10     	778.827   	580.603   	86.538    	58.647    	-104.746	-76.163 	-115.533	-168.898	-115.500	-104.510	-92.470 	-104.396
