#Rx    	          	          	          	          	Specular	        	Diffuse 	        	DiffusePSum	Total   	        	TotalPSum
#      	X(m)      	Y(m)      	Z(m)      	Distance(m)	Pow(dBm)	Phase(deg)	Pow(dBm)	Phase(deg)	Pow(dBm)	Pow(dBm)	Phase(deg)	Pow(dBm)
1      	689.611   	509.386   	187.943   	163.977   	-124.213	131.837 	-135.978	170.502 	-132.089	-122.541	139.480 	-123.557
2      	694.874   	447.365   	189.056   	191.761   	-128.080	-164.253	-130.320	78.431  	-132.078	-128.597	148.978 	-126.624
3      	749.513   	727.843   	184.989   	220.182   	-115.202	-9.777  	-133.859	90.776  	-135.855	-115.331	-3.089  	-115.165
4      	778.647   	581.411   	187.527   	150.167   	-135.728	29.988  	-141.542	-101.837	-134.771	-138.099	-0.100  	-132.213
5      	811.796   	433.125   	185.244   	201.979   	-123.028	70.313  	-136.241	-96.950 	-131.042	-125.094	66.810  	-122.391
6      	793.426   	680.482   	185.240   	192.700   	-119.495	-23.109 	-134.143	-99.691 	-131.363	-119.002	-32.909 	-119.222
7      	785.323   	667.913   	186.331   	184.044   	-122.733	-23.476 	-131.767	-24.621 	-131.801	-120.105	-23.775 	-122.226
8      	771.260   	646.099   	187.521   	170.515   	-123.560	154.660 	-138.802	-151.203	-132.956	-122.652	161.912 	-123.088
9      	718.205   	563.800   	186.925   	147.102   	-144.097	-75.241 	-132.621	-111.777	-134.426	-130.860	-104.325	-133.981
10     	715.327   	559.336   	187.075   	147.771   	-143.131	-88.692 	-135.931	-51.561 	-134.222	-133.175	-62.621 	-133.697
