#Rx    	          	          	          	          	Specular	        	Diffuse 	        	DiffusePSum	Total   	        	TotalPSum
#      	X(m)      	Y(m)      	Z(m)      	Distance(m)	Pow(dBm)	Phase(deg)	Pow(dBm)	Phase(deg)	Pow(dBm)	Pow(dBm)	Phase(deg)	Pow(dBm)
1      	777.951   	530.930   	86.057    	61.328    	-107.239	14.360  	-123.785	-25.131 	-116.467	-106.263	9.508   	-106.749
2      	751.974   	554.360   	86.455    	44.693    	-103.162	133.428 	-113.423	6.424   	-113.694	-104.559	116.699 	-102.793
3      	739.656   	565.469   	86.503    	44.770    	-98.963 	-90.813 	-112.341	174.898 	-114.255	-98.903 	-103.067	-98.836 
4      	664.228   	633.497   	87.862    	118.929   	-145.487	-9.657  	-151.188	139.808 	-135.278	-149.740	15.814  	-134.882
5      	733.406   	541.466   	85.641    	48.592    	-101.891	-124.091	-119.787	-168.559	-114.675	-101.106	-128.769	-101.668
6      	766.983   	515.779   	85.574    	65.185    	-111.918	-57.454 	-121.917	-60.094 	-116.710	-109.533	-58.088 	-110.674
7      	772.785   	445.345   	85.845    	125.459   	-111.423	-123.608	-124.036	-127.381	-127.026	-109.599	-124.324	-111.305
8      	759.089   	668.902   	86.656    	118.231   	-107.193	-75.091 	-136.582	-38.564 	-123.712	-106.958	-73.965 	-107.098
9      	796.528   	501.422   	85.528    	88.509    	-105.371	75.717  	-122.427	-169.233	-119.520	-105.824	83.414  	-105.207
10     	715.327   	559.336   	86.301    	53.458    	-116.004	38.030  	-113.796	-108.238	-117.579	-118.861	-57.740 	-113.710
